29/10/2021	14:56
Experiment Type:	Sizing
Pseudo Cross Correlation
Scattering angle:	15.0
Duration (s):	60
Wavelength (nm):	660.0
Refractive index:	1.330
Viscosity (mPas):	0.976
Temperature (K):	294.2
Laser intensity (mW):	82.082000
Average Count rate  A (kHz):	71.1
Average Count rate  B (kHz):	67.8
Intercept:	0.3836
Cumulant 1st	0.05
Cumulant 2nd	0.03	11.44
Cumulant 3rd	0.00	4.41

Lag time (s)         g2-1
1.250000E-8	0.450226
2.500000E-8	0.423560
3.750000E-8	0.387172
5.000000E-8	0.372451
6.250000E-8	0.380228
7.500000E-8	0.439948
8.750000E-8	0.391617
1.000000E-7	0.421893
1.125000E-7	0.380506
1.250000E-7	0.398839
1.375000E-7	0.378839
1.500000E-7	0.419671
1.625000E-7	0.397172
1.750000E-7	0.390228
1.875000E-7	0.425227
2.000000E-7	0.372728
2.125000E-7	0.349813
2.375000E-7	0.405088
2.625000E-7	0.379395
2.875000E-7	0.392589
3.125000E-7	0.390644
3.375000E-7	0.410644
3.625000E-7	0.367451
3.875000E-7	0.372867
4.125000E-7	0.382242
4.625000E-7	0.383214
5.125000E-7	0.373076
5.625000E-7	0.381478
6.125000E-7	0.374673
6.625000E-7	0.400019
7.125000E-7	0.376548
7.625000E-7	0.392728
8.125000E-7	0.374326
9.125000E-7	0.363076
1.012500E-6	0.380402
1.112500E-6	0.388075
1.212500E-6	0.380610
1.312500E-6	0.392485
1.412500E-6	0.371374
1.512500E-6	0.389429
1.612500E-6	0.383179
1.812500E-6	0.384933
2.012500E-6	0.386877
2.212500E-6	0.380332
2.412500E-6	0.386079
2.612500E-6	0.383822
2.812500E-6	0.393717
3.012500E-6	0.393162
3.212500E-6	0.383336
3.612500E-6	0.386929
4.012500E-6	0.381061
4.412500E-6	0.384950
4.812500E-6	0.389664
5.212500E-6	0.386747
5.612500E-6	0.381035
6.012500E-6	0.386539
6.412500E-6	0.389143
7.212500E-6	0.388956
8.012500E-6	0.383926
8.812500E-6	0.385974
9.612500E-6	0.384963
1.041250E-5	0.385827
1.121250E-5	0.384825
1.201250E-5	0.385736
1.281250E-5	0.383493
1.441250E-5	0.383395
1.601250E-5	0.382664
1.761250E-5	0.387538
1.921250E-5	0.383330
2.081250E-5	0.382542
2.241250E-5	0.384756
2.401250E-5	0.384142
2.561250E-5	0.382757
2.881250E-5	0.385256
3.201250E-5	0.382505
3.521250E-5	0.384193
3.841250E-5	0.384103
4.161250E-5	0.383970
4.481250E-5	0.383037
4.801250E-5	0.384011
5.121250E-5	0.384213
5.761250E-5	0.381745
6.401250E-5	0.383551
7.041250E-5	0.382082
7.681250E-5	0.382439
8.321250E-5	0.383862
8.961250E-5	0.382335
9.601250E-5	0.382077
0.000102	0.381135
0.000115	0.381288
0.000128	0.381350
0.000141	0.381556
0.000154	0.380345
0.000166	0.379485
0.000179	0.379304
0.000192	0.379540
0.000205	0.379029
0.000230	0.378888
0.000256	0.377503
0.000282	0.378503
0.000307	0.376317
0.000333	0.376572
0.000358	0.376031
0.000384	0.375381
0.000410	0.374656
0.000461	0.373780
0.000512	0.372568
0.000563	0.371317
0.000614	0.370800
0.000666	0.368816
0.000717	0.368348
0.000768	0.367518
0.000819	0.366315
0.000922	0.364377
0.001024	0.362717
0.001126	0.360185
0.001229	0.358497
0.001331	0.356646
0.001434	0.354274
0.001536	0.353013
0.001638	0.351509
0.001843	0.348415
0.002048	0.344969
0.002253	0.341889
0.002458	0.338728
0.002662	0.335526
0.002867	0.332440
0.003072	0.329613
0.003277	0.327055
0.003686	0.321713
0.004096	0.315975
0.004506	0.311029
0.004915	0.306086
0.005325	0.301197
0.005734	0.296448
0.006144	0.292024
0.006554	0.287578
0.007373	0.278827
0.008192	0.269997
0.009011	0.261555
0.009830	0.253768
0.010650	0.245812
0.011469	0.238661
0.012288	0.231891
0.013107	0.225206
0.014746	0.211916
0.016384	0.199355
0.018022	0.188180
0.019661	0.177110
0.021299	0.167001
0.022938	0.157219
0.024576	0.147910
0.026214	0.139250
0.029491	0.123313
0.032768	0.110792
0.036045	0.098841
0.039322	0.088383
0.042598	0.079724
0.045875	0.071662
0.049152	0.064118
0.052429	0.058902
0.058982	0.052084
0.065536	0.044827
0.072090	0.039640
0.078643	0.032731
0.085197	0.026732
0.091750	0.023309
0.098304	0.020731
0.104858	0.018304
0.117965	0.015247
0.131072	0.016131
0.144179	0.019257
0.157286	0.017726
0.170394	0.012014
0.183501	0.008662
0.196608	0.010910
0.209715	0.015413
0.235930	0.021750
0.262144	0.029277
0.288358	0.024393
0.314573	0.017272
0.340787	0.013673
0.367002	0.015342
0.393216	0.020973
0.419430	0.025404
0.471859	0.018752
0.524288	0.013809
0.576717	0.017088
0.629146	0.020780
0.681574	0.020460
0.734003	0.028778
0.786432	0.021416
0.838861	0.018810
0.943718	0.024362
1.048576	0.020297
1.153434	0.021522
1.258291	0.020174
1.363149	0.021124
1.468006	0.010364
1.572864	0.015816
1.677722	0.016884
1.887437	0.019426
2.097152	0.023742
2.306867	0.020422
2.516582	0.030836
2.726298	0.030707
2.936013	0.026389
3.145728	0.034732
3.355443	0.029179
3.774873	0.027219
4.194304	0.029249
4.613734	0.028622
5.033165	0.033369
5.452595	0.030898
5.872025	0.035596
6.291456	0.025405
6.710886	0.025465
7.549747	0.035120
8.388608	0.036725
9.227468	0.030198
10.066330	0.028621
10.905190	0.034268
11.744051	0.031649
12.582912	0.028911
13.421773	0.029757
15.099494	0.018318
16.777216	0.019919
18.454937	0.019678
20.132660	0.019955
21.810381	0.022126
23.488102	0.010204
25.165825	0.007934
26.843546	0.005210
30.198988	-0.010324
33.554432	-0.034211
36.909874	-0.074560
40.265320	-0.111170
43.620762	-0.137843
46.976204	-0.185979

Count Rate History (KHz)  CR CHA / CR CHB
0.000000	67.615509	65.898895
0.052429	52.051544	49.705505
0.104858	31.223297	30.364990
0.157286	64.811707	61.092377
0.209715	89.931488	84.476471
0.262144	92.754364	87.356567
0.314573	39.081573	36.849976
0.367002	43.601990	41.637421
0.419430	37.994385	35.247803
0.471859	133.171082	129.280090
0.524288	237.693787	222.740173
0.576717	66.051483	62.046051
0.629146	61.073303	60.024261
0.681574	43.563843	42.724609
0.734003	39.443970	38.909912
0.786432	37.536621	36.125183
0.838861	52.108765	50.506592
0.891290	46.977997	45.433044
0.943718	42.705536	40.721893
0.996147	37.288666	38.337708
1.048576	56.724548	52.814484
1.101005	31.566620	32.634735
1.153434	34.809113	33.378601
1.205862	56.629181	56.934357
1.258291	43.220520	42.686462
1.310720	49.667358	49.476624
1.363149	54.264069	53.520203
1.415578	59.890747	55.999756
1.468006	45.967102	44.918060
1.520435	38.280487	38.318634
1.572864	79.097748	74.901581
1.625293	52.719116	48.103333
1.677722	35.858154	34.275055
1.730150	38.700104	35.552979
1.782579	38.528442	36.506653
1.835008	72.212219	66.757202
1.887437	99.258423	96.340179
1.939866	45.356750	42.304993
1.992294	44.574738	43.849945
2.044723	48.694611	47.264099
2.097152	75.416565	71.849823
2.149581	89.340210	85.258484
2.202010	47.988892	46.997070
2.254438	36.449432	33.931732
2.306867	46.539307	46.577454
2.359296	56.362152	54.073334
2.411725	35.305023	36.258698
2.464154	67.653656	67.729950
2.516582	45.185089	41.389465
2.569011	41.675568	40.187836
2.621440	37.937164	36.811829
2.673869	54.149628	50.487518
2.726298	62.923431	57.849884
2.778726	45.585632	42.686462
2.831155	53.710937	51.822662
2.883584	71.945190	66.738129
2.936013	48.732758	48.084259
2.988442	63.953400	62.847137
3.040870	59.146881	55.809021
3.093299	61.874390	59.795380
3.145728	48.046112	45.833588
3.198157	33.740997	34.656525
3.250586	49.266815	48.103333
3.303014	70.590973	68.111420
3.355443	67.749023	66.852570
3.407872	38.166046	38.986206
3.460301	52.623749	52.108765
3.512730	57.430267	54.035187
3.565158	60.596466	58.650970
3.617587	62.656403	58.345795
3.670016	44.250488	44.689178
3.722445	62.065125	58.288574
3.774874	35.743713	36.373138
3.827302	45.127869	44.746399
3.879731	35.095215	34.370422
3.932160	33.931732	33.721924
3.984589	49.152374	47.245026
4.037018	50.945282	48.789978
4.089446	42.896271	43.392181
4.141875	42.552948	40.397644
4.194304	78.086853	73.776245
4.246733	72.460175	70.438385
4.299162	46.424866	47.416687
4.351590	100.784302	94.890594
4.404019	72.326660	68.778992
4.456448	64.640045	61.798096
4.508877	58.574677	58.631897
4.561306	67.062378	61.950684
4.613734	62.122345	58.326721
4.666163	51.803589	49.552917
4.718592	65.364838	62.980652
4.771021	87.471008	79.345703
4.823450	50.067902	47.874451
4.875878	52.089691	50.296783
4.928307	39.100647	38.299561
4.980736	61.702728	59.509277
5.033165	43.296814	40.378571
5.085594	36.582947	35.362244
5.138022	52.146912	52.375793
5.190451	47.321320	44.898987
5.242880	43.640137	42.591095
5.295309	36.888123	34.942627
5.347738	38.032532	38.585663
5.400166	34.027100	32.348633
5.452595	48.103333	46.882629
5.505024	68.264008	65.689087
5.557453	71.983337	66.223145
5.609882	60.768127	57.106018
5.662310	68.416595	64.277649
5.714739	84.552765	80.242157
5.767168	35.228729	34.351349
5.819597	68.321228	67.272186
5.872026	106.315613	100.955963
5.924454	34.637451	33.950806
5.976883	60.062408	57.849884
6.029312	98.342896	93.517303
6.081741	58.307648	55.065155
6.134170	47.092438	45.261383
6.186598	63.095093	62.370300
6.239027	90.122223	84.495544
6.291456	95.539093	92.163086
6.343885	45.871735	42.552948
6.396314	66.223145	62.618256
6.448742	120.182037	112.743378
6.501171	56.495667	54.683685
6.553600	85.201263	81.939697
6.606029	111.942291	101.852417
6.658458	54.111481	50.220490
6.710886	88.825226	87.966919
6.763315	42.381287	41.923523
6.815744	34.275055	33.988953
6.868173	58.898926	58.364868
6.920602	47.359467	45.814514
6.973030	56.247711	53.348541
7.025459	61.798096	59.585571
7.077888	74.405670	70.304871
7.130317	63.953400	61.721802
7.182746	55.961609	52.528381
7.235174	47.893524	46.234131
7.287603	41.084290	39.482117
7.340032	41.084290	40.187836
7.392461	53.501129	51.555634
7.444890	73.146820	70.819855
7.497318	67.539215	67.291260
7.549747	48.236847	47.359467
7.602176	79.174042	76.389313
7.654605	46.634674	43.220520
7.707034	50.506592	48.847198
7.759462	61.779022	63.133240
7.811891	43.678284	43.258667
7.864320	84.705353	81.443787
7.916749	60.729980	58.784485
7.969178	49.190521	46.272278
8.021606	82.511902	77.552795
8.074035	35.705566	33.817291
8.126464	63.781738	58.155060
8.178893	67.272186	63.438416
8.231322	39.215088	35.896301
8.283750	51.956177	48.332214
8.336179	82.645416	79.708099
8.388608	79.345703	77.266693
8.441037	49.552917	47.111511
8.493466	74.501038	72.116852
8.545894	72.746277	68.988800
8.598323	46.138763	46.234131
8.650752	56.762695	54.683685
8.703181	55.809021	52.642822
8.755610	105.228424	102.329254
8.808038	139.694214	134.296417
8.860467	75.492859	72.288513
8.912896	45.547485	44.727325
8.965325	36.087036	38.661957
9.017754	91.209412	87.795258
9.070182	62.351227	57.201385
9.122611	80.509186	75.778961
9.175040	50.296783	50.258636
9.227469	55.541992	54.740906
9.279898	44.193268	42.362213
9.332326	47.969818	45.146942
9.384755	53.482056	51.879883
9.437184	39.939880	39.062500
9.489613	166.854858	155.639648
9.542042	59.471130	58.250427
9.594470	46.882629	43.373108
9.646899	45.356750	44.403076
9.699328	54.683685	50.983429
9.751757	68.264008	65.441132
9.804186	42.209625	42.095184
9.856614	58.670044	55.656433
9.909043	49.667358	48.236847
9.961472	141.353607	134.468079
10.013901	89.302063	86.441040
10.066330	55.332184	52.852631
10.118758	51.708221	52.318573
10.171187	39.501190	38.757324
10.223616	59.757233	56.762695
10.276045	77.857971	75.302124
10.328474	41.255951	41.999817
10.380902	56.991577	51.460266
10.433331	78.144073	74.024200
10.485760	46.253204	45.185089
10.538189	48.885345	47.283173
10.590618	80.108643	78.620911
10.643046	64.163208	60.367584
10.695475	51.631927	47.874451
10.747904	117.301941	112.228394
10.800333	40.779114	40.740967
10.852762	41.160583	39.253235
10.905190	77.400208	70.629120
10.957619	69.465637	70.266724
11.010048	80.204010	78.239441
11.062477	38.051605	36.563873
11.114906	78.487396	73.204041
11.167334	114.288330	106.410980
11.219763	135.459900	128.421783
11.272192	109.195709	104.198456
11.324621	117.206573	108.146667
11.377050	107.154846	102.787018
11.429478	54.550171	51.612854
11.481907	89.302063	83.599091
11.534336	53.329468	52.356720
11.586765	71.010590	69.122314
11.639194	79.174042	77.648163
11.691622	75.950623	72.383881
11.744051	72.250366	69.789886
11.796480	84.609985	82.015991
11.848909	64.620972	59.356689
11.901338	76.599121	69.446564
11.953766	63.991547	62.694550
12.006195	124.225616	114.402771
12.058624	67.138672	65.574646
12.111053	103.797913	100.059509
12.163482	45.833588	44.479370
12.215910	49.285889	49.858093
12.268339	101.699829	95.310211
12.320768	146.923065	139.217377
12.373197	77.838898	75.378418
12.425626	67.024231	63.323975
12.478054	49.304962	47.855377
12.530483	43.678284	41.503906
12.582912	71.239471	70.800781
12.635341	56.285858	53.462982
12.687770	56.266785	54.168701
12.740198	63.877106	59.928894
12.792627	54.359436	49.839020
12.845056	81.424713	77.724457
12.897485	63.514709	61.378479
12.949914	48.809052	48.027039
13.002342	121.631622	116.119385
13.054771	98.514557	93.097687
13.107200	63.972473	58.917999
13.159629	44.441223	41.561127
13.212058	51.269531	46.386719
13.264486	107.307434	104.045868
13.316915	95.214844	89.302063
13.369344	153.369904	143.013000
13.421773	118.141174	111.007690
13.474202	52.280426	50.659180
13.526630	146.026611	139.942169
13.579059	187.931061	178.318024
13.631488	75.817108	72.135925
13.683917	55.027008	51.441193
13.736346	44.784546	43.258667
13.788774	74.596405	73.776245
13.841203	124.893188	115.337372
13.893632	64.868927	62.637329
13.946061	125.408173	117.130280
13.998490	118.503571	113.754272
14.050918	52.452087	49.724579
14.103347	55.408478	52.299500
14.155776	85.964203	82.664490
14.208205	56.190491	55.980682
14.260634	95.539093	91.800690
14.313062	42.285919	42.495728
14.365491	40.779114	37.212372
14.417920	116.062164	108.432770
14.470349	103.378296	94.623566
14.522778	73.432922	69.255829
14.575206	131.721497	128.040314
14.627635	63.953400	59.204102
14.680064	51.803589	49.228668
14.732493	39.882660	37.422180
14.784922	36.201477	35.724640
14.837350	87.413788	85.048676
14.889779	117.988586	111.160278
14.942208	176.086426	164.890289
14.994637	43.220520	38.890839
15.047066	73.127747	69.694519
15.099494	62.847137	60.272217
15.151923	104.141235	95.844269
15.204352	142.173767	135.612488
15.256781	120.944977	114.898682
15.309210	72.517395	69.942474
15.361638	50.811768	48.217773
15.414067	29.468536	30.422211
15.466496	40.378571	39.234161
15.518925	44.364929	42.400360
15.571354	89.168549	85.086823
15.623782	91.724396	87.852478
15.676211	73.547363	68.607330
15.728640	87.261200	84.095001
15.781069	120.964050	115.337372
15.833498	80.299377	75.511932
15.885926	38.032532	38.127899
15.938355	53.710937	52.318573
15.990784	45.948029	45.051575
16.043213	65.956116	63.819885
16.095642	40.836334	38.051605
16.148070	72.078705	70.629120
16.200499	59.318542	57.182312
16.252928	46.844482	45.146942
16.305357	64.334869	60.977936
16.357786	37.937164	38.986206
16.410214	45.089722	44.670105
16.462643	167.026520	158.634186
16.515072	124.473572	117.015839
16.567501	96.206665	91.266632
16.619930	95.787048	91.400146
16.672358	33.054352	30.307770
16.724787	58.746338	56.076050
16.777216	52.433014	51.307678
16.829645	68.893433	66.204071
16.882074	42.819977	39.825439
16.934502	42.076111	41.484833
16.986931	53.634644	50.468445
17.039360	37.631989	36.563873
17.091789	56.819916	52.108765
17.144218	70.343018	66.509247
17.196646	45.871735	42.819977
17.249075	42.190552	42.266846
17.301504	51.670074	49.667358
17.353933	64.773560	59.127808
17.406362	37.708282	35.362244
17.458790	37.002563	36.964417
17.511219	58.879852	57.468414
17.563648	70.152283	69.007874
17.616077	41.637421	39.863586
17.668506	52.719116	50.659180
17.720934	80.928802	73.966980
17.773363	96.664429	90.427399
17.825792	83.408356	77.877045
17.878221	44.689178	41.809082
17.930650	53.081512	52.013397
17.983078	68.168640	63.743591
18.035507	87.833405	82.664490
18.087936	48.236847	47.225952
18.140365	36.563873	36.220551
18.192794	52.394867	50.258636
18.245222	110.435486	103.988647
18.297651	84.609985	82.073212
18.350080	63.686371	59.127808
18.402509	37.345886	35.839081
18.454938	40.054321	36.087036
18.507366	136.909485	127.696991
18.559795	79.879761	77.419281
18.612224	44.956207	44.097900
18.664653	35.076141	31.948090
18.717082	51.898956	50.468445
18.769510	51.555634	50.697327
18.821939	54.264069	50.830841
18.874368	48.713684	48.561096
18.926797	80.051422	77.934265
18.979226	156.936646	145.263672
19.031654	71.983337	68.778992
19.084083	66.051483	62.274933
19.136512	83.351135	81.596375
19.188941	37.288666	36.449432
19.241370	82.397461	76.580048
19.293798	73.242187	71.105957
19.346227	97.236633	89.855194
19.398656	127.067566	118.618011
19.451085	72.231293	69.160461
19.503514	78.926086	78.792572
19.555942	45.642853	43.754578
19.608371	48.561096	49.324036
19.660800	40.988922	41.198730
19.713229	43.907166	41.656494
19.765658	51.651001	48.942566
19.818086	145.893097	138.893127
19.870515	39.863586	38.185120
19.922944	100.421906	96.435547
19.975373	73.471069	68.874359
20.027802	63.190460	60.272217
20.080230	58.670044	55.732727
20.132659	39.253235	38.528442
20.185088	79.002380	78.163147
20.237517	41.732788	39.882660
20.289946	48.751831	45.757294
20.342374	126.285553	120.525360
20.394803	75.073242	70.381165
20.447232	116.252899	110.130310
20.499661	90.599060	85.639954
20.552090	39.939880	39.310455
20.604518	41.542053	41.637421
20.656947	115.509033	105.838776
20.709376	87.604523	84.457397
20.761805	52.947998	48.313141
20.814234	68.264008	65.364838
20.866662	140.628815	132.656097
20.919091	75.798035	76.713562
20.971520	58.841705	56.781769
21.023949	42.228699	42.285919
21.076378	64.258575	63.762665
21.128806	46.920776	43.277740
21.181235	37.689209	35.781860
21.233664	60.768127	57.888031
21.286093	69.313049	65.155029
21.338522	67.062378	65.822601
21.390950	61.645508	58.097839
21.443379	42.648315	43.354034
21.495808	53.977966	50.868988
21.548237	58.155060	55.389404
21.600666	91.991425	86.746216
21.653094	40.760040	40.531158
21.705523	66.452026	65.765381
21.757952	76.751709	75.397491
21.810381	192.623138	179.748535
21.862810	65.345764	64.582825
21.915238	42.762756	41.046143
21.967667	58.879852	54.321289
22.020096	47.111511	45.681000
22.072525	43.144226	43.277740
22.124954	75.988770	72.212219
22.177382	53.920746	52.852631
22.229811	95.043182	93.555450
22.282240	82.340240	79.288483
22.334669	60.787201	59.947968
22.387098	46.558380	45.375824
22.439526	91.342926	87.413788
22.491955	106.601715	98.915100
22.544384	137.729645	133.819580
22.596813	101.833344	95.977783
22.649242	54.512024	51.517487
22.701670	71.926117	70.266724
22.754099	111.122131	105.247498
22.806528	116.481781	110.359192
22.858957	75.359344	72.593689
22.911386	81.329346	78.315735
22.963814	85.124969	76.942444
23.016243	98.514557	94.356537
23.068672	45.280457	43.659210
23.121101	82.550049	81.710815
23.173530	75.054169	73.547363
23.225958	73.566437	70.400238
23.278387	125.827789	119.419098
23.330816	123.252869	115.833282
23.383245	64.792633	60.615540
23.435674	88.138580	85.525513
23.488102	41.313171	38.127899
23.540531	116.672516	111.274719
23.592960	137.062073	129.413605
23.645389	110.435486	105.037689
23.697818	127.792358	125.484467
23.750246	101.222992	97.637177
23.802675	76.808929	71.907043
23.855104	61.798096	59.814453
23.907533	81.214905	77.133179
23.959962	44.746399	42.610168
24.012390	63.152313	62.732697
24.064819	70.152283	67.634583
24.117248	68.969727	67.176819
24.169677	64.029694	61.683655
24.222106	70.590973	70.075989
24.274534	79.460144	78.525543
24.326963	99.239349	96.378326
24.379392	160.827637	154.571533
24.431821	60.272217	60.005188
24.484250	41.275024	39.882660
24.536678	68.531036	64.640045
24.589107	105.800629	100.593567
24.641536	88.653564	81.539154
24.693965	73.375702	67.939758
24.746394	50.640106	48.084259
24.798822	96.168518	94.509125
24.851251	93.250275	91.571808
24.903680	53.348541	51.841736
24.956109	68.969727	67.062378
25.008538	102.996826	94.470978
25.060966	104.675293	98.705292
25.113395	82.607269	77.743530
25.165824	97.713470	92.163086
25.218253	78.163147	73.719025
25.270682	42.572021	40.225983
25.323110	39.787292	37.860870
25.375539	60.329437	56.934357
25.427968	81.481934	75.130463
25.480397	135.269165	128.078461
25.532826	54.721832	52.089691
25.585254	114.040375	110.397339
25.637683	107.975006	103.912354
25.690112	54.702759	55.065155
25.742541	52.566528	50.716400
25.794970	64.315796	60.710907
25.847398	44.517517	43.430328
25.899827	269.355774	253.753662
25.952256	171.833038	163.135529
26.004685	80.738068	77.495575
26.057114	45.490265	44.422150
26.109542	37.307739	37.918091
26.161971	44.040680	41.599274
26.214400	49.324036	45.795441
26.266829	49.304962	47.054291
26.319258	52.795410	50.830841
26.371686	67.596436	63.724518
26.424115	57.601929	52.871704
26.476544	61.836243	58.441162
26.528973	142.517090	137.062073
26.581402	105.743408	99.430084
26.633830	101.528168	96.378326
26.686259	64.201355	60.482025
26.738688	54.454803	54.473877
26.791117	64.373016	62.503815
26.843546	56.190491	54.683685
26.895974	42.190552	41.942596
26.948403	49.362183	44.879913
27.000832	54.054260	53.672791
27.053261	46.043396	45.242310
27.105690	101.413727	98.495483
27.158118	94.947815	87.108612
27.210547	105.323792	100.936890
27.262976	57.144165	52.051544
27.315405	71.792603	66.928864
27.367834	133.190155	127.372742
27.420262	96.015930	87.928772
27.472691	70.285797	69.446564
27.525120	96.473694	92.239380
27.577549	112.152100	105.400085
27.629978	54.187775	52.604675
27.682406	96.282959	93.631744
27.734835	144.710541	132.369995
27.787264	105.075836	98.781586
27.839693	58.898926	53.329468
27.892122	70.629120	66.528320
27.944550	38.948059	36.602020
27.996979	115.566254	113.048553
28.049408	103.321075	98.667145
28.101837	136.795044	132.713318
28.154266	180.091858	165.939331
28.206694	131.130219	120.506287
28.259123	136.585236	131.416321
28.311552	182.132721	174.903870
28.363981	202.178955	194.320679
28.416410	147.762299	139.427185
28.468838	83.465576	80.623627
28.521267	81.367493	77.610016
28.573696	102.767944	100.955963
28.626125	53.977966	49.972534
28.678554	46.100616	43.334961
28.730982	60.405731	58.841705
28.783411	58.345795	56.610107
28.835840	47.931671	45.452118
28.888269	98.075867	93.688965
28.940698	64.640045	65.288544
28.993126	54.836273	54.836273
29.045555	166.778564	156.574249
29.097984	138.988495	132.274628
29.150413	137.863159	130.538940
29.202842	57.449341	55.656433
29.255270	85.372925	81.424713
29.307699	151.596069	142.993927
29.360128	48.828125	46.443939
29.412557	39.768219	37.136078
29.464986	45.413971	46.215057
29.517414	65.536499	61.035156
29.569843	47.931671	45.833588
29.622272	33.283234	33.168793
29.674701	49.266815	47.283173
29.727130	78.048706	73.566437
29.779558	67.062378	61.244965
29.831987	46.863556	46.119690
29.884416	44.307709	42.781830
29.936845	59.185028	55.561066
29.989274	44.384003	45.299530
30.041702	44.021606	41.465759
30.094131	47.397614	42.343140
30.146560	61.759949	58.078766
30.198989	48.389435	47.950745
30.251418	85.201263	82.454681
30.303846	148.849487	141.448975
30.356275	82.492828	81.367493
30.408704	71.582794	68.130493
30.461133	62.847137	60.348511
30.513562	71.086884	71.067810
30.565990	96.817017	93.402863
30.618419	55.274963	49.724579
30.670848	45.890808	42.991638
30.723277	41.370392	42.304993
30.775706	64.868927	65.479279
30.828134	102.443695	99.411011
30.880563	139.942169	132.236481
30.932992	128.536224	117.225647
30.985421	98.533630	90.618134
31.037850	112.705231	110.683441
31.090278	47.283173	46.749115
31.142707	124.282837	118.713379
31.195136	108.337402	101.852417
31.247565	112.533569	106.658936
31.299994	62.046051	59.814453
31.352422	120.677948	114.536285
31.404851	136.928558	126.495361
31.457280	105.915070	103.302002
31.509709	79.288483	73.833466
31.562138	47.588348	44.841766
31.614566	58.860779	58.078766
31.666995	109.272003	105.743408
31.719424	190.544128	180.015564
31.771853	116.825104	111.579895
31.824282	58.975220	57.506561
31.876710	98.991394	92.601776
31.929139	47.340393	47.435760
31.981568	58.383942	55.656433
32.033997	56.133270	51.555634
32.086426	42.133331	42.552948
32.138854	54.149628	52.738190
32.191283	47.817230	44.021606
32.243712	71.697235	68.264008
32.296141	274.066925	259.647369
32.348570	77.190399	72.994232
32.400998	60.119629	57.468414
32.453427	77.075958	74.291229
32.505856	73.013306	71.659088
32.558285	76.236725	69.007874
32.610714	63.724518	58.822632
32.663142	55.580139	54.607391
32.715571	61.836243	56.514740
32.768000	41.370392	40.969849
32.820429	43.735504	40.473938
32.872858	49.057007	44.116974
32.925286	90.770721	88.176727
32.977715	69.541931	67.253113
33.030144	144.176483	132.865906
33.082573	63.800812	59.318542
33.135002	69.351196	67.329407
33.187430	55.618286	53.424835
33.239859	54.817200	50.792694
33.292288	86.994171	83.656311
33.344717	99.754333	97.084045
33.397146	138.645172	132.331848
33.449574	109.043121	102.558136
33.502003	72.574615	69.980621
33.554432	112.857819	110.073090
33.606861	65.364838	63.362122
33.659290	76.007843	77.800751
33.711718	79.364777	77.629089
33.764147	64.430237	65.956116
33.816576	62.541962	60.157776
33.869005	66.852570	64.125061
33.921434	97.694397	92.430115
33.973862	80.795288	77.667236
34.026291	234.928131	219.364166
34.078720	134.468079	130.023956
34.131149	102.748871	99.773407
34.183578	51.536560	48.484802
34.236006	53.005219	48.866272
34.288435	60.157776	58.956146
34.340864	69.236755	67.501068
34.393293	64.029694	59.337616
34.445722	104.789734	100.994110
34.498150	94.909668	93.135834
34.550579	60.119629	54.779053
34.603008	55.828094	54.893494
34.655437	43.487549	43.144226
34.707866	94.394684	87.203979
34.760294	90.026855	84.266663
34.812723	89.168549	86.860657
34.865152	128.059387	116.195679
34.917581	60.253143	57.067871
34.970010	50.334930	48.198700
35.022438	60.882568	59.127808
35.074867	76.236725	72.669983
35.127296	90.503693	87.661743
35.179725	102.825165	95.958710
35.232154	153.656006	153.999329
35.284582	273.208618	255.565643
35.337011	74.329376	70.304871
35.389440	96.588135	93.479156
35.441869	86.669922	82.836151
35.494298	100.383759	96.130371
35.546726	70.037842	69.503784
35.599155	43.048859	39.634705
35.651584	62.656403	55.809021
35.704013	72.898865	71.773529
35.756442	62.427521	58.898926
35.808870	67.977905	65.479279
35.861299	62.828064	60.577393
35.913728	48.942566	44.441223
35.966157	45.681000	44.059753
36.018586	102.005005	93.669891
36.071014	145.187378	132.789612
36.123443	56.247711	52.719116
36.175872	39.329529	37.937164
36.228301	111.331940	106.678009
36.280730	54.397583	52.700043
36.333158	63.076019	62.351227
36.385587	124.187469	119.762421
36.438016	175.971985	166.034698
36.490445	108.394623	103.969574
36.542874	45.681000	43.087006
36.595302	74.005127	69.198608
36.647731	167.541504	159.873962
36.700160	127.944946	119.361877
36.752589	51.422119	49.705505
36.805018	56.076050	55.332184
36.857446	80.471039	73.947906
36.909875	49.419403	46.710968
36.962304	40.969849	43.067932
37.014733	63.533783	62.828064
37.067162	40.149689	40.645599
37.119590	51.841736	48.885345
37.172019	64.659119	62.313080
37.224448	56.133270	55.389404
37.276877	73.394775	68.798065
37.329306	65.536499	62.217712
37.381734	70.419312	65.288544
37.434163	65.746307	62.198639
37.486592	62.828064	58.917999
37.539021	53.005219	50.239563
37.591450	77.629089	74.729919
37.643878	95.100403	86.231232
37.696307	53.386688	53.615570
37.748736	96.988678	88.005066
37.801165	102.691650	97.255707
37.853594	82.416534	77.552795
37.906022	52.738190	49.877167
37.958451	73.833466	68.340302
38.010880	99.067688	95.062256
38.063309	55.809021	53.882599
38.115738	49.018860	46.329498
38.168166	33.950806	33.435822
38.220595	72.269440	68.283081
38.273024	75.988770	73.299408
38.325453	184.230804	174.579620
38.377882	96.092224	88.615417
38.430310	56.247711	55.713654
38.482739	146.903992	135.231018
38.535168	59.757233	57.716370
38.587597	55.179596	54.264069
38.640026	39.463043	38.242340
38.692454	48.809052	46.691895
38.744883	46.615601	45.127869
38.797312	97.312927	91.266632
38.849741	79.612732	75.950623
38.902170	74.863434	71.926117
38.954598	72.937012	68.225861
39.007027	55.942535	53.176880
39.059456	56.781769	52.833557
39.111885	148.162842	138.378143
39.164314	220.928192	205.364227
39.216742	99.887848	94.356537
39.269171	55.408478	53.195953
39.321600	76.122284	74.157715
39.374029	115.795135	107.307434
39.426458	141.372681	135.650635
39.478886	106.925964	101.432800
39.531315	55.065155	54.492950
39.583744	130.615234	125.427246
39.636173	92.849731	88.405609
39.688602	90.827942	86.765289
39.741030	75.073242	69.904327
39.793459	55.675507	52.337646
39.845888	46.520233	43.697357
39.898317	79.364777	74.043274
39.950746	167.942047	158.309937
40.003174	100.898743	95.443726
40.055603	49.114227	45.833588
40.108032	64.373016	60.672760
40.160461	54.416656	49.285889
40.212890	188.999176	183.944702
40.265318	98.876953	92.468262
40.317747	78.849792	75.168610
40.370176	93.917847	89.607239
40.422605	67.424774	61.473846
40.475034	57.868958	56.819916
40.527462	53.272247	52.471161
40.579891	96.378326	91.304779
40.632320	145.931244	138.168335
40.684749	95.787048	91.247559
40.737178	68.836212	65.288544
40.789606	49.724579	46.501160
40.842035	75.759888	71.926117
40.894464	40.149689	39.024353
40.946893	95.958710	90.579987
40.999322	49.533844	47.683716
41.051750	64.735413	59.280396
41.104179	77.686310	72.803497
41.156608	59.776306	56.972504
41.209037	48.980713	45.566559
41.261466	83.084106	78.639984
41.313894	56.972504	53.520203
41.366323	142.364502	134.620667
41.418752	46.920776	43.907166
41.471181	76.904297	73.318481
41.523610	116.901398	113.162994
41.576038	75.607300	69.351196
41.628467	80.261230	75.874329
41.680896	123.806000	114.307404
41.733325	58.403015	55.503845
41.785754	46.691895	44.021606
41.838182	67.691803	61.244965
41.890611	49.953461	47.073364
41.943040	75.817108	69.522858
41.995469	59.566498	56.743622
42.047898	79.498291	72.536469
42.100326	54.531097	53.005219
42.152755	83.713531	81.081390
42.205184	63.457489	60.024261
42.257613	77.190399	73.661804
42.310042	93.212128	90.026855
42.362470	51.918030	49.858093
42.414899	78.830719	75.607300
42.467328	51.612854	49.591064
42.519757	50.220490	51.097870
42.572186	67.768097	64.544678
42.624614	38.604736	37.555695
42.677043	57.182312	54.626465
42.729472	77.476501	76.828003
42.781901	48.542023	47.359467
42.834330	101.146698	96.359253
42.886758	97.999573	94.738007
42.939187	45.166016	42.533875
42.991616	54.550171	51.441193
43.044045	99.849701	92.144012
43.096474	140.171051	130.405426
43.148902	120.697021	116.672516
43.201331	102.272034	97.732544
43.253760	77.095032	72.498322
43.306189	43.735504	42.572021
43.358618	50.640106	49.762726
43.411046	80.337524	73.795319
43.463475	81.367493	76.141357
43.515904	33.874512	32.005310
43.568333	64.105988	61.206818
43.620762	45.223236	42.705536
43.673190	110.740662	106.086731
43.725619	85.983276	80.795288
43.778048	70.648193	65.498352
43.830477	110.435486	104.961395
43.882906	72.650909	70.152283
43.935334	90.827942	84.648132
43.987763	41.103363	40.874481
44.040192	79.631805	74.043274
44.092621	207.099915	193.710327
44.145050	129.451752	121.803284
44.197478	249.328613	237.045288
44.249907	81.539154	81.443787
44.302336	50.067902	48.332214
44.354765	61.550140	58.593750
44.407194	46.997070	45.070648
44.459622	36.239624	35.800934
44.512051	76.580048	71.830750
44.564480	52.528381	51.097870
44.616909	40.168762	38.089752
44.669338	50.468445	49.285889
44.721766	118.179321	115.089417
44.774195	78.525543	75.531006
44.826624	79.479218	75.187683
44.879053	47.645569	44.136047
44.931482	42.037964	40.988922
44.983910	67.348480	62.847137
45.036339	42.610168	43.125153
45.088768	59.833527	59.185028
45.141197	74.214935	70.800781
45.193626	87.337494	85.163116
45.246054	71.239471	70.571899
45.298483	48.255920	47.283173
45.350912	54.969788	51.765442
45.403341	115.528107	110.797882
45.455770	90.370178	84.190369
45.508198	68.073273	64.258575
45.560627	43.239594	41.198730
45.613056	46.977997	46.329498
45.665485	42.247772	39.577484
45.717914	56.381226	53.234100
45.770342	39.463043	36.792755
45.822771	103.645325	98.552704
45.875200	79.307556	72.765350
45.927629	78.468323	73.509216
45.980058	68.111420	65.956116
46.032486	81.939697	77.533722
46.084915	63.381195	59.509277
46.137344	39.310455	37.193298
46.189773	94.909668	86.669922
46.242202	90.389252	85.639954
46.294630	122.833252	115.795135
46.347059	57.430267	52.032471
46.399488	43.354034	43.048859
46.451917	60.615540	56.991577
46.504346	39.920807	39.501190
46.556774	64.640045	63.762665
46.609203	64.964294	64.640045
46.661632	58.002472	53.386688
46.714061	51.727295	49.381256
46.766490	80.547333	75.187683
46.818918	46.958923	44.212341
46.871347	72.536469	69.084167
46.923776	107.154846	102.386475
46.976205	39.100647	37.441254
47.028634	49.476624	47.931671
47.081062	81.443787	78.811646
47.133491	127.067566	117.835999
47.185920	116.691589	107.021332
47.238349	112.037659	105.800629
47.290778	93.803406	89.664459
47.343206	55.122375	53.710937
47.395635	50.010681	48.046112
47.448064	85.258484	80.165863
47.500493	69.980621	66.776276
47.552922	72.708130	72.250366
47.605350	112.781525	107.402802
47.657779	53.291321	51.727295
47.710208	54.340363	51.422119
47.762637	53.749084	50.792694
47.815066	71.067810	68.550110
47.867494	64.849854	63.381195
47.919923	66.699982	61.683655
47.972352	51.231384	49.705505
48.024781	54.092407	54.073334
48.077210	49.228668	49.018860
48.129638	45.146942	43.697357
48.182067	80.547333	74.405670
48.234496	52.909851	51.174164
48.286925	39.405823	35.514832
48.339354	46.958923	45.986176
48.391782	48.122406	43.830872
48.444211	81.558228	76.408386
48.496640	41.694641	40.187836
48.549069	37.345886	37.422180
48.601498	36.811829	34.008026
48.653926	55.789948	53.062439
48.706355	62.847137	57.220459
48.758784	39.997101	38.986206
48.811213	42.381287	40.340424
48.863642	44.136047	42.667389
48.916070	79.441071	75.721741
48.968499	52.413940	49.514771
49.020928	52.986145	52.738190
49.073357	40.740967	37.784576
49.125786	55.179596	52.356720
49.178214	48.828125	45.681000
49.230643	49.076080	47.798157
49.283072	38.795471	37.574768
49.335501	71.678162	67.310333
49.387930	42.762756	40.569305
49.440358	46.901703	43.773651
49.492787	30.555725	30.212402
49.545216	58.193207	55.999756
49.597645	53.234100	51.383972
49.650074	38.452148	38.013458
49.702502	43.697357	41.904449
49.754931	49.762726	47.302246
49.807360	85.525513	82.626343
49.859789	45.471191	44.040680
49.912218	67.501068	66.356659
49.964646	83.618164	79.116821
50.017075	123.615265	119.419098
50.069504	79.936981	76.045990
50.121933	43.849945	41.351318
50.174362	50.086975	47.969818
50.226790	106.143951	100.059509
50.279219	59.261322	58.765411
50.331648	39.596558	37.841797
50.384077	42.800903	40.988922
50.436506	41.389465	38.757324
50.488934	55.122375	52.375793
50.541363	34.179687	33.855438
50.593792	32.176971	30.364990
50.646221	45.242310	45.433044
50.698650	90.866089	85.506439
50.751078	83.236694	81.710815
50.803507	98.495483	95.252991
50.855936	55.694580	53.539276
50.908365	40.664673	41.427612
50.960794	54.740906	55.713654
51.013222	46.634674	44.937134
51.065651	66.261292	66.375732
51.118080	53.882599	49.800873
51.170509	35.686493	35.285950
51.222938	50.220490	48.580170
51.275366	66.814423	63.610077
51.327795	44.250488	44.155121
51.380224	44.708252	44.002533
51.432653	32.291412	32.005310
51.485082	46.005249	43.773651
51.537510	44.269562	42.762756
51.589939	42.419434	40.740967
51.642368	36.239624	35.190582
51.694797	41.465759	39.920807
51.747226	47.340393	45.852661
51.799654	75.950623	72.498322
51.852083	53.710937	52.833557
51.904512	42.915344	41.713715
51.956941	35.438538	35.305023
52.009370	58.975220	54.016113
52.061798	45.127869	45.013428
52.114227	43.430328	41.828156
52.166656	51.670074	50.354004
52.219085	45.757294	41.141510
52.271514	100.708008	94.490051
52.323942	65.479279	60.367584
52.376371	51.326752	47.378540
52.428800	46.997070	43.354034
52.481229	76.045990	69.923401
52.533658	36.602020	35.858154
52.586086	35.915375	33.760071
52.638515	33.016205	31.337738
52.690944	47.473907	44.975281
52.743373	133.762360	124.549866
52.795802	66.795349	64.353943
52.848230	45.661926	44.479370
52.900659	54.340363	52.947998
52.953088	44.326782	41.580200
53.005517	71.582794	67.787170
53.057946	48.217773	42.858124
53.110374	57.563782	54.893494
53.162803	88.195801	81.825256
53.215232	61.569214	57.220459
53.267661	57.353973	54.321289
53.320090	49.934387	48.103333
53.372518	32.081604	31.814575
53.424947	65.841675	63.228607
53.477376	118.618011	112.056732
53.529805	108.032227	102.615356
53.582234	75.588226	71.754456
53.634662	56.953430	52.547455
53.687091	42.972565	42.209625
53.739520	36.430359	34.503937
53.791949	35.400391	36.754608
53.844378	48.217773	46.272278
53.896806	68.931580	65.994263
53.949235	60.367584	57.201385
54.001664	63.209534	58.593750
54.054093	50.563812	47.588348
54.106522	36.716461	36.373138
54.158950	58.650970	57.811737
54.211379	117.149353	110.225677
54.263808	79.154968	75.016022
54.316237	32.882690	33.302307
54.368666	39.081573	37.574768
54.421094	39.844513	39.176941
54.473523	45.890808	43.773651
54.525952	50.411224	46.367645
54.578381	61.721802	60.920715
54.630810	44.136047	43.525696
54.683238	55.770874	52.833557
54.735667	53.596497	49.591064
54.788096	45.375824	44.841766
54.840525	73.871613	67.958832
54.892954	87.356567	83.026886
54.945382	69.599152	67.043304
54.997811	45.585632	43.792725
55.050240	42.724609	40.855408
55.102669	43.487549	42.572021
55.155098	54.302216	53.081512
55.207526	45.700073	45.642853
55.259955	80.013275	75.225830
55.312384	93.803406	89.435577
55.364813	52.833557	48.542023
55.417242	33.092499	31.623840
55.469670	44.403076	43.849945
55.522099	83.065033	80.318451
55.574528	124.702454	116.043091
55.626957	43.239594	42.362213
55.679386	66.795349	64.659119
55.731814	70.476532	66.089630
55.784243	59.242249	56.629181
55.836672	44.307709	44.155121
55.889101	67.558289	62.026978
55.941530	66.337585	63.648224
55.993958	58.116913	53.863525
56.046387	49.591064	46.672821
56.098816	38.166046	35.266876
56.151245	72.002411	68.778992
56.203674	83.847046	82.283020
56.256102	84.590912	79.574585
56.308531	78.983307	74.863434
56.360960	50.525665	48.770905
56.413389	89.569092	85.620880
56.465818	38.547516	38.814545
56.518246	58.040619	54.168701
56.570675	54.817200	53.482056
56.623104	45.032501	44.136047
56.675533	37.307739	36.010742
56.727962	37.288666	34.904480
56.780390	42.419434	41.904449
56.832819	46.386719	43.220520
56.885248	36.239624	34.580231
56.937677	38.566589	37.288666
56.990106	51.269531	47.760010
57.042534	43.258667	42.343140
57.094963	35.076141	34.790039
57.147392	40.645599	42.133331
57.199821	43.544769	39.672852
57.252250	41.980743	38.757324
57.304678	108.280182	102.329254
57.357107	90.847015	83.351135
57.409536	88.996887	84.648132
57.461965	40.149689	38.242340
57.514394	55.599213	53.043365
57.566822	44.231415	41.828156
57.619251	51.136017	47.340393
57.671680	54.187775	50.468445
57.724109	136.928558	128.555298
57.776538	108.451843	101.871490
57.828966	52.490234	50.964355
57.881395	37.651062	37.822723
57.933824	58.040619	54.817200
57.986253	99.105835	92.906952
58.038682	67.501068	67.329407
58.091110	40.779114	39.119720
58.143539	53.997040	52.700043
58.195968	59.299469	57.353973
58.248397	70.133209	66.013336
58.300826	32.444000	32.348633
58.353254	42.247772	39.501190
58.405683	37.727356	36.830902
58.458112	81.367493	78.563690
58.510541	82.607269	79.326630
58.562970	52.585602	50.106049
58.615398	87.509155	82.321167
58.667827	41.656494	39.920807
58.720256	70.266724	65.479279
58.772685	39.138794	39.234161
58.825114	56.724548	52.604675
58.877542	40.588379	37.899017
58.929971	50.239563	47.378540
58.982400	70.381165	65.841675
59.034829	67.234039	65.174103
59.087258	60.539246	60.043335
59.139686	77.171326	72.593689
59.192115	59.356689	56.781769
59.244544	47.550201	48.007965
59.296973	34.790039	32.997131
59.349402	57.716370	54.454803
59.401830	34.770966	33.359528
59.454259	40.321350	40.283203
59.506688	45.642853	43.182373
59.559117	68.340302	69.122314
59.611546	83.942413	77.686310
59.663974	101.528168	98.018646
59.716403	71.811676	69.484711
